# Thermal Project data
# T (K)   delta C_p (R)
500.04	-0.0144685
500.12	-0.0133785
500.21	-0.0145685
500.29	-0.0144885
500.37	-0.0139885
500.46	-0.0137485
500.54	-0.0140885
500.63	-0.0140985
500.71	-0.0141885
500.79	-0.0154685
500.88	-0.0147185
500.96	-0.0139585
501.04	-0.0137985
501.12	-0.0129585
501.21	-0.0137285
501.29	-0.0146685
501.37	-0.0148385
501.46	-0.0151085
501.54	-0.0148585
501.63	-0.0138485
501.71	-0.0137685
501.79	-0.0148785
501.88	-0.0142085
501.96	-0.0146385
502.05	-0.0159185
502.13	-0.0154185
502.21	-0.0154285
502.29	-0.0153485
502.38	-0.0155285
502.46	-0.0155285
502.54	-0.0137585
502.63	-0.0135985
502.71	-0.0141185
502.79	-0.0144585
502.88	-0.0146385
502.96	-0.0150685
503.05	-0.0154985
503.13	-0.0151685
503.22	-0.0169585
503.29	-0.0182285
503.38	-0.0164585
503.46	-0.0138485
503.54	-0.0133485
503.63	-0.0152185
503.71	-0.0158185
503.8	-0.0154785
503.88	-0.0164185
503.96	-0.0167685
504.05	-0.0178785
504.13	-0.0186485
504.22	-0.0172085
504.3	-0.0181485
504.38	-0.0197685
504.47	-0.0206185
504.55	-0.0188485
504.63	-0.0174185
504.72	-0.0163285
504.8	-0.0170985
504.88	-0.0190485
504.97	-0.0193985
505.05	-0.0188085
505.13	-0.0172085
505.22	-0.0184885
505.3	-0.0203585
505.38	-0.0195185
505.47	-0.0185985
505.55	-0.0167385
505.64	-0.0158985
505.72	-0.0158285
505.8	-0.0165885
505.88	-0.0161785
505.97	-0.0150885
506.05	-0.0140785
506.13	-0.0138285
506.22	-0.0133285
506.3	-0.0131685
506.39	-0.0126685
506.47	-0.0140285
506.56	-0.0217385
506.64	-0.0221685
506.72	-0.0180285
506.81	-0.0138885
506.88	-0.0137285
506.97	-0.0139085
507.05	-0.0132385
507.14	-0.0136685
507.22	-0.0132485
507.3	-0.0132585
507.39	-0.0141985
507.47	-0.0145385
507.55	-0.0145485
507.64	-0.0140485
507.72	-0.0130385
507.8	-0.0124585
507.89	-0.0131385
507.97	-0.0144185
508.05	-0.0162885
508.13	-0.0174785
508.22	-0.0164685
508.3	-0.0145285
508.38	-0.0147885
508.47	-0.0147185
508.55	-0.0154885
508.64	-0.0165085
508.72	-0.0176985
508.8	-0.0187285
508.89	-0.0182185
508.97	-0.0168785
509.05	-0.0159485
509.14	-0.0183285
509.22	-0.0193485
509.3	-0.0207185
509.39	-0.0210585
509.47	-0.0196285
509.55	-0.0184485
509.63	-0.0175285
509.72	-0.0171985
509.8	-0.0178785
509.88	-0.0174685
509.97	-0.0165385
510.05	-0.0147685
510.14	-0.0136785
510.22	-0.0146185
510.31	-0.0149685
510.39	-0.0144685
510.47	-0.0142185
510.55	-0.0141385
510.63	-0.0123685
510.72	-0.0131385
510.8	-0.0146685
510.88	-0.0168785
510.96	-0.0155285
511.05	-0.0134185
511.13	-0.0124985
511.22	-0.0120885
511.3	-0.0121785
511.39	-0.0127785
511.47	-0.0131185
511.56	-0.0125385
511.64	-0.0127985
511.72	-0.0119585
511.8	-0.0108685
511.89	-0.0120585
511.97	-0.0118985
512.06	-0.0114785
512.14	-0.0113185
512.22	-0.0110685
512.31	-0.0109985
512.39	-0.0121885
512.47	-0.0133785
512.56	-0.0135585
512.64	-0.0133985
512.72	-0.0135685
512.81	-0.0123085
512.89	-0.0118085
512.97	-0.0111385
513.06	-0.0117385
513.14	-0.0128485
513.22	-0.0133585
513.31	-0.0133685
513.39	-0.0121885
513.47	-0.0109285
513.56	-0.0112785
513.64	-0.0122985
513.72	-0.0122285
513.81	-0.0107085
513.89	-0.0091885
513.97	-0.0098785
514.06	-0.0103085
514.14	-0.0114185
514.22	-0.0111685
514.31	-0.0102485
514.39	-0.0088985
514.48	-0.0094085
514.56	-0.0083185
514.64	-0.0089185
514.73	-0.0075785
514.81	-0.0061385
514.9	-0.0054685
514.98	-0.0053985
515.06	-0.0067585
515.14	-0.0072685
515.22	-0.0075385
515.31	-0.0078785
515.39	-0.0073785
515.47	-0.0064585
515.56	-0.0074785
515.64	-0.0094285
515.73	-0.0091885
515.81	-0.0102985
515.89	-0.0086085
515.97	-0.0067585
516.06	-0.0061685
516.14	-0.0060085
516.23	-0.0061885
516.31	-0.0061885
516.4	-0.0072985
516.47	-0.0069685
516.56	-0.0059585
516.64	-0.0062185
516.72	-0.0075885
516.81	-0.0086085
516.89	-0.0075985
516.98	-0.0052385
517.06	-0.0038085
517.14	-0.0051685
517.23	-0.0061085
517.31	-0.0059485
517.4	-0.0046785
517.48	-0.0051985
517.56	-0.0054585
517.64	-0.0056385
517.73	-0.0054685
517.81	-0.0059885
517.89	-0.0059085
517.97	-0.0058285
518.06	-0.0049085
518.14	-0.0047485
518.22	-0.0043285
518.31	-0.0050985
518.39	-0.0048585
518.48	-0.0033385
518.56	-0.0021585
518.65	-0.0022585
518.73	-0.0025185
518.81	-0.0022685
518.89	-0.0033785
518.98	-0.0051585
519.06	-0.0041485
519.14	-0.0024685
519.22	-0.0011185
519.31	-0.0012985
519.39	-0.0029985
519.48	-0.0037685
519.56	-0.0047085
519.64	-0.0053885
519.72	-0.0029385
519.81	-0.0012585
519.89	-0.0032985
519.98	-0.0052485
520.06	-0.0049185
520.14	-0.0032385
520.22	-0.0012085
520.31	-0.0023185
520.39	-0.0032585
520.48	-0.0035985
520.56	-0.0031885
520.64	-0.0024285
520.73	-0.0007485
520.81	-0.0008385
520.89	-0.0022885
520.98	-0.0019585
521.06	-0.0017085
521.14	-0.0016285
521.23	-0.0020585
521.31	-0.0017285
521.39	-0.0012285
521.47	-0.0012385
521.56	-0.0021785
521.64	-0.0039585
521.72	-0.0037185
521.81	-0.0025385
521.9	-0.0032185
521.98	-0.0028885
522.06	-0.0012885
522.14	-0.0013785
522.23	-0.0022385
522.31	-0.0009785
522.4	-0.0008985
522.47	-0.0016685
522.56	-0.0015085
522.64	-0.0015085
522.73	-0.0005885
522.81	-0.0015285
522.89	-0.0028085
522.98	-0.0028985
523.06	-0.0009585
523.15	0.0007315
523.23	0.0012315
523.31	0.0006315
523.4	0.0013815
523.48	0.0016315
523.57	0.0021315
523.65	0.0024615
523.73	0.0032115
523.81	0.0032115
523.89	0.0032815
523.98	0.0029415
524.06	0.0032715
524.14	0.0042815
524.23	0.0030015
524.31	0.0029915
524.4	0.0028215
524.48	0.0022215
524.56	0.0020415
524.65	0.0027915
524.73	0.0025315
524.81	0.0006615
524.89	0.0012515
524.97	0.0025115
525.06	0.0034315
525.15	0.0027515
525.23	0.0006215
525.31	-0.0013285
525.4	-0.0022685
525.48	-0.0004085
525.56	0.0019515
525.65	0.0012715
525.73	0.0008315
525.82	0.0002315
525.9	0.0001415
525.98	0.0008115
526.06	0.0023315
526.15	0.0013915
526.23	0.0007115
526.32	-0.0001485
526.4	-0.0003285
526.48	-0.0002485
526.57	0.0014415
526.65	0.0005815
526.73	0.0004115
526.82	0.0010815
526.9	0.0023415
526.98	0.0019115
527.06	0.0019815
527.15	0.0005415
527.23	0.0014615
527.31	0.0015415
527.4	0.0026315
527.48	0.0017815
527.56	0.0018615
527.65	0.0047315
527.73	0.0056515
527.81	0.0042015
527.9	0.0031015
527.98	0.0025815
528.06	0.0020615
528.15	0.0023115
528.23	0.0034015
528.32	0.0023015
528.39	0.0014415
528.48	0.0015215
528.56	0.0006715
528.65	0.0010015
528.73	0.0017515
528.81	0.0034415
528.9	0.0032615
528.98	0.0027415
529.06	0.0023115
529.15	0.0021415
529.23	0.0027215
529.32	0.0051715
529.4	0.0054215
529.48	0.0038815
529.56	0.0026915
529.64	0.0023515
529.73	0.0026815
529.81	0.0027515
529.89	0.0024915
529.98	3.15E-05
530.06	0.0005315
530.14	0.0019615
530.23	0.0018715
530.31	0.0006815
530.39	-0.0003385
530.48	0.0004915
530.56	0.0013315
530.64	0.0019215
530.73	0.0008115
530.81	-0.0017385
530.89	-0.0029285
530.98	-0.0013285
531.06	-0.0019285
531.14	-0.0024385
531.23	-0.0016885
531.31	-0.0011885
531.39	-0.0002585
531.48	0.0007415
531.56	0.0020115
531.65	0.0015715
531.73	0.0030915
531.81	0.0038415
531.9	0.0031615
531.98	0.0042515
532.06	0.0043315
532.15	0.0038215
532.23	0.0051615
532.31	0.0070215
532.4	0.0073515
532.48	0.0059915
532.57	0.0064915
532.64	0.0063115
532.73	0.0061315
532.81	0.0057915
532.9	0.0056915
532.98	0.0051015
533.07	0.0046615
533.15	0.0053315
533.23	0.0066015
533.31	0.0053215
533.39	0.0046315
533.48	0.0057315
533.57	0.0073315
533.65	0.0065615
533.73	0.0072315
533.82	0.0082415
533.9	0.0071315
533.98	0.0072115
534.07	0.0075415
534.15	0.0093915
534.24	0.0097215
534.32	0.0099715
534.4	0.0091115
534.48	0.0070815
534.57	0.0061415
534.65	0.0073215
534.73	0.0079815
534.82	0.0081515
534.9	0.0063615
534.98	0.0033115
535.07	0.0028815
535.15	0.0044815
535.23	0.0048915
535.32	0.0052215
535.4	0.0061515
535.48	0.0073215
535.56	0.0079115
535.65	0.0071415
535.73	0.0078115
535.81	0.0063615
535.9	0.0048315
535.98	0.0071115
536.07	0.0088815
536.15	0.0087015
536.23	0.0097115
536.31	0.0096215
536.4	0.0097015
536.48	0.0092715
536.57	0.0080715
536.65	0.0084915
536.73	0.0086515
536.81	0.0099115
536.9	0.0112615
536.98	0.0111715
537.07	0.0111615
537.15	0.0115815
537.23	0.0101315
537.31	0.0105515
537.4	0.0102915
537.48	0.0091815
537.57	0.0099315
537.65	0.0126315
537.73	0.0130515
537.82	0.0116015
537.9	0.0122715
537.98	0.0104915
538.07	0.0092915
538.15	0.0095415
538.23	0.0080915
538.31	0.0083415
538.4	0.0085015
538.48	0.0083315
538.56	0.0087415
538.65	0.0067915
538.73	0.0075415
538.82	0.0080415
538.9	0.0074415
538.98	0.0075215
539.06	0.0081015
539.14	0.0070815
539.23	0.0069015
539.31	0.0080015
539.4	0.0090915
539.48	0.0086615
539.56	0.0074715
539.65	0.0071215
539.73	0.0089815
539.8	0.0099015
539.89	0.0109115
539.98	0.0115815
540.06	0.0099615
540.14	0.0113915
540.23	0.0129915
540.31	0.0131615
540.39	0.0024015
540.47	-0.0021785
540.56	0.0026415
540.64	0.0092315
540.72	0.0101615
540.81	0.0093915
540.89	0.0106515
540.98	0.0121715
541.06	0.0130015
541.15	0.0130015
541.23	0.0121415
541.32	0.0102715
541.4	0.0074715
541.49	0.0062815
541.56	0.0075415
541.65	0.0072815
541.73	0.0064315
541.81	0.0076915
541.9	0.0078515
541.98	0.0067415
542.07	0.0077515
542.15	0.0091015
542.23	0.0106115
542.32	0.0107815
542.4	0.0106815
542.48	0.0103415
542.57	0.0099915
542.65	0.0095615
542.73	0.0096415
542.82	0.0099715
542.9	0.0107215
542.98	0.0119015
543.07	0.0134215
543.15	0.0134915
543.24	0.0123915
543.32	0.0103515
543.4	0.0106815
543.49	0.0114315
543.57	0.0122715
543.65	0.0117615
543.74	0.0120915
543.82	0.0132715
543.9	0.0132615
543.99	0.0124915
544.07	0.0142615
544.15	0.0137415
544.23	0.0131415
544.32	0.0133915
544.4	0.0148215
544.49	0.0141415
544.57	0.0150615
544.65	0.0168315
544.74	0.0179215
544.82	0.0186815
544.9	0.0191815
544.99	0.0182415
545.07	0.0177215
545.15	0.0206815
545.24	0.0205015
545.32	0.0191415
545.4	0.0187115
545.49	0.0192115
545.57	0.0195415
545.65	0.0178415
545.74	0.0175815
545.82	0.0178315
545.91	0.0191715
545.99	0.0212815
546.07	0.0236415
546.16	0.0237215
546.24	0.0238815
546.32	0.0252315
546.4	0.0248815
546.49	0.0246215
546.57	0.0254615
546.65	0.0256215
546.74	0.0248515
546.82	0.0242515
546.91	0.0226415
546.99	0.0215315
547.07	0.0231315
547.15	0.0249815
547.24	0.0246415
547.32	0.0233615
547.41	0.0242015
547.49	0.0211515
547.57	0.0208915
547.66	0.0223215
547.74	0.0218915
547.82	0.0216215
547.91	0.0200115
547.99	0.0196615
548.07	0.0200815
548.15	0.0204915
548.24	0.0220115
548.32	0.0220015
548.41	0.0222515
548.49	0.0234315
548.57	0.0230015
548.66	0.0239215
548.74	0.0257715
548.82	0.0260215
548.9	0.0255115
548.98	0.0252415
549.07	0.0277815
549.15	0.0282815
549.23	0.0277615
549.32	0.0296215
549.41	0.0292715
549.49	0.0286715
549.57	0.0307815
549.65	0.0301815
549.74	0.0284815
549.82	0.0287215
549.9	0.0302415
549.98	0.0303215
550.07	0.0300615
550.15	0.0288615
550.24	0.0264015
550.32	0.0258015
550.4	0.0263915
550.49	0.0266315
550.57	0.0256915
550.65	0.0250915
550.74	0.0257615
550.82	0.0265215
550.91	0.0266815
550.99	0.0275215
551.07	0.0275115
551.15	0.0260715
551.24	0.0257215
551.32	0.0258015
551.41	0.0265515
551.49	0.0294215
551.57	0.0309415
551.66	0.0300015
551.74	0.0286415
551.82	0.0261815
551.91	0.0260815
551.99	0.0274315
552.07	0.0296215
552.16	0.0293615
552.24	0.0296115
552.32	0.0300215
552.4	0.0316215
552.49	0.0314515
552.57	0.0305915
552.65	0.0317715
552.74	0.0321915
552.82	0.0314215
552.9	0.0320015
552.99	0.0348715
553.07	0.0357115
553.16	0.0354515
553.24	0.0360315
553.32	0.0350115
553.41	0.0343315
553.49	0.0359315
553.57	0.0363415
553.66	0.0352415
553.74	0.0362415
553.82	0.0381815
553.91	0.0389415
553.99	0.0388415
554.07	0.0381615
554.16	0.0371415
554.24	0.0367115
554.33	0.0378815
554.41	0.0399115
554.49	0.0396515
554.57	0.0397215
554.65	0.0403115
554.74	0.0400515
554.82	0.0403815
554.9	0.0417315
554.99	0.0425615
555.07	0.0413715
555.15	0.0419615
555.24	0.0419515
555.32	0.0421115
555.41	0.0419315
555.49	0.0432015
555.57	0.0426015
555.66	0.0431815
555.74	0.0421615
555.82	0.0422415
555.9	0.0438415
555.99	0.0445915
556.07	0.0446715
556.16	0.0444115
556.24	0.0435515
556.32	0.0446515
556.41	0.0450615
556.49	0.0441215
556.57	0.0433515
556.66	0.0451215
556.74	0.0481615
556.83	0.0494215
556.91	0.0483215
556.99	0.0477215
557.07	0.0476215
557.15	0.0482115
557.24	0.0506615
557.32	0.0511615
557.4	0.0511515
557.49	0.0528415
557.57	0.0525715
557.66	0.0540015
557.74	0.0556915
557.82	0.0552615
557.91	0.0542415
557.99	0.0535515
558.07	0.0525315
558.16	0.0521015
558.24	0.0540415
558.32	0.0547115
558.41	0.0544515
558.49	0.0555415
558.57	0.0583215
558.65	0.0581515
558.74	0.0554315
558.82	0.0522915
558.91	0.0526215
558.99	0.0551515
559.07	0.0557415
559.16	0.0555615
559.24	0.0564015
559.32	0.0578315
559.41	0.0579115
559.49	0.0587515
559.57	0.0582315
559.65	0.0584815
559.74	0.0596615
559.82	0.0601615
559.9	0.0617615
559.99	0.0619215
560.07	0.0614115
560.16	0.0609715
560.24	0.0619015
560.32	0.0622315
560.4	0.0625615
560.49	0.0623815
560.57	0.0624615
560.66	0.0627015
560.74	0.0652415
560.82	0.0655715
560.91	0.0651415
560.99	0.0669115
561.07	0.0683415
561.16	0.0684215
561.24	0.0677315
561.32	0.0679815
561.41	0.0687315
561.49	0.0691515
561.57	0.0709215
561.66	0.0720115
561.74	0.0723415
561.82	0.0755515
561.9	0.0779115
561.99	0.0790915
562.07	0.0794215
562.16	0.0784815
562.24	0.0784815
562.32	0.0775415
562.41	0.0793115
562.49	0.0814215
562.58	0.0808215
562.66	0.0797115
562.74	0.0797915
562.83	0.0811315
562.91	0.0838315
562.99	0.0844215
563.07	0.0848315
563.16	0.0839015
563.24	0.0838015
563.32	0.0850615
563.41	0.0857315
563.49	0.0866615
563.57	0.0871615
563.66	0.0867315
563.74	0.0890915
563.82	0.0906115
563.91	0.0918715
563.99	0.0927115
564.07	0.0934615
564.16	0.0932815
564.24	0.0920115
564.32	0.0982615
564.41	0.1066315
564.49	0.1082315
564.58	0.1048415
564.66	0.1038215
564.74	0.1027115
564.83	0.1032115
564.91	0.1034615
564.99	0.1034515
565.08	0.1052215
565.16	0.1075015
565.25	0.1067315
565.33	0.1064715
565.41	0.1066315
565.49	0.1066215
565.57	0.1078015
565.66	0.1094815
565.74	0.1128615
565.82	0.1136215
565.91	0.1145415
565.99	0.1172415
566.07	0.1167215
566.16	0.1166315
566.24	0.1173015
566.33	0.1190715
566.41	0.1205915
566.5	0.1229515
566.58	0.1240415
566.66	0.1248815
566.74	0.1236015
566.82	0.1242715
566.91	0.1262115
566.99	0.1270515
567.08	0.1275515
567.16	0.1273815
567.24	0.1272815
567.33	0.1279515
567.41	0.1286215
567.49	0.1279415
567.58	0.1264115
567.66	0.1246215
567.74	0.1255515
567.82	0.1267215
567.91	0.1272215
567.99	0.1284915
568.07	0.1294115
568.16	0.1306715
568.24	0.1348115
568.32	0.1360715
568.41	0.1359815
568.49	0.1374115
568.57	0.1382515
568.66	0.1382415
568.74	0.1401815
568.83	0.1424615
568.91	0.1433815
568.99	0.1439715
569.07	0.1458215
569.16	0.1465815
569.24	0.1459815
569.32	0.1474115
569.4	0.1487615
569.49	0.1485815
569.57	0.1500115
569.66	0.1501715
569.74	0.1511815
569.82	0.1534615
569.91	0.1569215
569.99	0.1601315
570.08	0.1598715
570.16	0.1621415
570.24	0.1636615
570.32	0.1627215
570.41	0.1620415
570.49	0.1616915
570.57	0.1616015
570.66	0.1628615
570.74	0.1628515
570.83	0.1646215
570.91	0.1660515
570.99	0.1680815
571.07	0.1694315
571.16	0.1700115
571.25	0.1706015
571.33	0.1704215
571.41	0.1721915
571.49	0.1759915
571.58	0.1793715
571.66	0.1799515
571.74	0.1777415
571.83	0.1789215
571.91	0.1794215
571.99	0.1799215
572.08	0.1815215
572.16	0.1829515
572.25	0.1843015
572.33	0.1865815
572.41	0.1903815
572.49	0.1924015
572.58	0.1914615
572.66	0.1923915
572.74	0.1927215
572.83	0.1929715
572.91	0.1932115
573	0.1951515
573.08	0.1965015
573.16	0.1987715
573.25	0.2015615
573.33	0.2029115
573.41	0.2040815
573.5	0.2057715
573.58	0.2070315
573.66	0.2080415
573.74	0.2087115
573.82	0.2098015
573.91	0.2112315
573.99	0.2108915
574.07	0.2108015
574.16	0.2136615
574.24	0.2162015
574.33	0.2198315
574.41	0.2228715
574.49	0.2231115
574.58	0.2251415
574.66	0.2263115
574.75	0.2280015
574.83	0.2301915
574.91	0.2304415
574.99	0.2308615
575.07	0.2311915
575.16	0.2326215
575.24	0.2348115
575.33	0.2347215
575.41	0.2351315
575.49	0.2375015
575.58	0.2385915
575.66	0.2391715
575.75	0.2410315
575.83	0.2439015
575.91	0.2456715
576	0.2475215
576.08	0.2486115
576.16	0.2486915
576.24	0.2487715
576.32	0.2504615
576.41	0.2540915
576.49	0.2561115
576.58	0.2569515
576.66	0.2582115
576.74	0.2576115
576.83	0.2598015
576.91	0.2627615
576.99	0.2629215
577.08	0.2620715
577.16	0.2620615
577.24	0.2627315
577.33	0.2639915
577.41	0.2662715
577.49	0.2660915
577.57	0.2673515
577.66	0.2688715
577.74	0.2698815
577.82	0.2715615
577.91	0.2733315
577.99	0.2742615
578.07	0.2777215
578.16	0.2844815
578.24	0.2897215
578.33	0.2909015
578.41	0.2896215
578.49	0.2898715
578.57	0.2917215
578.65	0.2919715
578.74	0.2933215
578.82	0.2950915
578.91	0.2967715
578.99	0.2977015
579.07	0.2980315
579.16	0.3005615
579.24	0.3028415
579.32	0.3032515
579.41	0.3040915
579.49	0.3056915
579.57	0.3072915
579.66	0.3101615
579.74	0.3106615
579.82	0.3112515
579.91	0.3135215
579.99	0.3166515
580.07	0.3170615
580.16	0.3195115
580.24	0.3219615
580.32	0.3228015
580.41	0.3221115
580.49	0.3236315
580.58	0.3254015
580.66	0.3266615
580.74	0.3291915
580.83	0.3294415
580.91	0.3297715
580.99	0.3334815
581.07	0.3363515
581.16	0.3364315
581.24	0.3360015
581.33	0.3367515
581.41	0.3373415
581.5	0.3372515
581.58	0.3388515
581.66	0.3428215
581.75	0.3441615
581.83	0.3456815
581.91	0.3469415
582	0.3484615
582.08	0.3498915
582.16	0.3524215
582.24	0.3537715
582.32	0.3549515
582.41	0.3571415
582.49	0.3605215
582.58	0.3615215
582.66	0.3633815
582.74	0.3661615
582.83	0.3695415
582.91	0.3706315
582.99	0.3718115
583.08	0.3722315
583.16	0.3740815
583.25	0.3776315
583.33	0.3801615
583.41	0.3804915
583.49	0.3842115
583.57	0.3875915
583.66	0.3891015
583.74	0.3913815
583.83	0.3924715
583.91	0.3950015
584	0.3962615
584.08	0.3981215
584.16	0.4003115
584.25	0.4019115
584.33	0.4052115
584.42	0.4092615
584.5	0.4101015
584.58	0.4117915
584.66	0.4148215
584.74	0.4157515
584.83	0.4169315
584.91	0.4205615
584.99	0.4258015
585.08	0.4251115
585.16	0.4231615
585.24	0.4238315
585.33	0.4263615
585.41	0.4289715
585.49	0.4320115
585.58	0.4346315
585.66	0.4359815
585.74	0.4352115
585.82	0.4365515
585.91	0.4381515
585.99	0.4438215
586.08	0.4489715
586.16	0.4509115
586.25	0.4526815
586.33	0.4538615
586.41	0.4554615
586.5	0.4577415
586.58	0.4601015
586.66	0.4637315
586.75	0.4655915
586.83	0.4665915
586.91	0.4666715
586.99	0.4691215
587.07	0.4719915
587.16	0.4756215
587.24	0.4766315
587.33	0.4795815
587.41	0.4835515
587.49	0.4859115
587.58	0.4867515
587.66	0.4889515
587.74	0.4897815
587.83	0.4897815
587.91	0.4921415
587.99	0.4954315
588.08	0.4974615
588.16	0.5000715
588.24	0.5019315
588.32	0.5017515
588.41	0.5024215
588.49	0.5041015
588.58	0.5066415
588.66	0.5084115
588.74	0.5116115
588.82	0.5144815
588.91	0.5165915
588.99	0.5193815
589.07	0.5227615
589.16	0.5270715
589.24	0.5296815
589.32	0.5317915
589.41	0.5345815
589.49	0.5368515
589.57	0.5374415
589.66	0.5449615
589.74	0.5480915
589.83	0.5481615
589.91	0.5483215
589.99	0.5477215
590.08	0.5491615
590.16	0.5521115
590.25	0.5552315
590.33	0.5580215
590.41	0.5595415
590.49	0.5613915
590.57	0.5637515
590.66	0.5653515
590.74	0.5682215
590.83	0.5712615
590.91	0.5709215
590.99	0.5711615
591.08	0.5750515
591.16	0.5769915
591.24	0.5780015
591.33	0.5817115
591.41	0.5872915
591.5	0.5915115
591.58	0.5936215
591.66	0.5952215
591.74	0.5969115
591.83	0.5974115
591.91	0.6023115
592	0.6066215
592.08	0.6078015
592.16	0.6102415
592.25	0.6125215
592.33	0.6154715
592.41	0.6169915
592.5	0.6200315
592.58	0.6226515
592.66	0.6259415
592.75	0.6290615
592.83	0.6289715
592.91	0.6302315
593	0.6370815
593.08	0.6412215
593.16	0.6420615
593.25	0.6435715
593.33	0.6458515
593.41	0.6470315
593.5	0.6505815
593.58	0.6559015
593.67	0.6558115
593.75	0.6556315
593.83	0.6567215
593.91	0.6583215
594	0.6616215
594.08	0.6656715
594.16	0.6686315
594.25	0.6702315
594.33	0.6731815
594.41	0.6763115
594.5	0.6775715
594.58	0.6779015
594.66	0.6792515
594.75	0.6834715
594.83	0.6861715
594.92	0.6885315
595	0.6904715
595.08	0.6931715
595.17	0.6966415
595.25	0.6999315
595.33	0.7030515
595.41	0.7043115
595.49	0.7058315
595.58	0.7065915
595.66	0.7103015
595.75	0.7144415
595.83	0.7177315
595.91	0.7184915
596	0.7217815
596.08	0.7253315
596.16	0.7274415
596.25	0.7283615
596.33	0.7318215
596.42	0.7366415
596.5	0.7388315
596.58	0.7406015
596.66	0.7437315
596.74	0.7463415
596.83	0.7493015
